Save Time: 2025-02-27 14:49:46
Units:(mV)
,CH1,CH2
Status:,Stop,Stop
Frequency:,25.888 kHz,73.925 kHz
Period:,38.629 uS,13.527 uS
PK-PK:,3.560 V,70000.000 V


1,1440.00,-12400000.00
2,1480.00,7200000.00
3,1440.00,-8000000.00
4,1480.00,10000000.00
5,1440.00,-8400000.00
6,1480.00,4400000.00
7,1400.00,-5200000.00
8,1440.00,8000000.00
9,1400.00,-8000000.00
10,1400.00,3200000.00
11,1360.00,-3200000.00
12,1400.00,2800000.00
13,1320.00,-2800000.00
14,1320.00,400000.00
15,1280.00,-800000.00
16,1280.00,0.00
17,1240.00,-400000.00
18,1240.00,0.00
19,1160.00,-400000.00
20,1200.00,0.00
21,1120.00,-400000.00
22,1240.00,0.00
23,920.00,-400000.00
24,1120.00,0.00
25,920.00,0.00
26,1040.00,0.00
27,920.00,-400000.00
28,1000.00,0.00
29,800.00,0.00
30,1040.00,0.00
31,760.00,0.00
32,880.00,0.00
33,720.00,0.00
34,840.00,1600000.00
35,680.00,-2000000.00
36,760.00,24800000.00
37,640.00,-27200000.00
38,800.00,16000000.00
39,560.00,-16800000.00
40,720.00,7600000.00
41,320.00,-8400000.00
42,360.00,38400000.00
43,-1480.00,-31600000.00
44,-1400.00,21200000.00
45,-1480.00,-21600000.00
46,-1320.00,15600000.00
47,-1560.00,-17200000.00
48,-1440.00,10800000.00
49,-1480.00,-11200000.00
50,-1480.00,10400000.00
51,-1480.00,-6000000.00
52,-1440.00,10400000.00
53,-1480.00,-11200000.00
54,-1440.00,7200000.00
55,-1480.00,-4000000.00
56,-1400.00,3200000.00
57,-1480.00,-3200000.00
58,-1360.00,1200000.00
59,-1440.00,-800000.00
60,-1320.00,12000000.00
61,-1400.00,-12400000.00
62,-1280.00,7600000.00
63,-1360.00,-7200000.00
64,-1240.00,2400000.00
65,-1320.00,-2000000.00
66,-1200.00,800000.00
67,-1240.00,-800000.00
68,-1120.00,400000.00
69,-1200.00,0.00
70,-1040.00,400000.00
71,-1200.00,0.00
72,-960.00,400000.00
73,-1120.00,0.00
74,-920.00,400000.00
75,-1040.00,0.00
76,-800.00,400000.00
77,-1000.00,0.00
78,-800.00,400000.00
79,-960.00,0.00
80,-680.00,400000.00
81,-920.00,0.00
82,-720.00,400000.00
83,-800.00,0.00
84,-680.00,4400000.00
85,-840.00,-6800000.00
86,-640.00,18000000.00
87,-760.00,-17600000.00
88,-600.00,14000000.00
89,-720.00,-14000000.00
90,1600.00,10400000.00
91,-640.00,-9200000.00
92,1480.00,15600000.00
93,1400.00,-14000000.00
94,1480.00,10800000.00
95,1400.00,-15600000.00
96,1520.00,8000000.00
97,1440.00,-8800000.00
98,1520.00,9600000.00
99,1480.00,-9200000.00
100,1520.00,8400000.00
101,1440.00,-7600000.00
102,1480.00,6000000.00
103,1440.00,-5200000.00
104,1480.00,14000000.00
105,1440.00,-12800000.00
106,1440.00,10400000.00
107,1400.00,-9600000.00
108,1400.00,9200000.00
109,1360.00,-8800000.00
110,1360.00,4000000.00
111,1320.00,-4000000.00
112,1320.00,1600000.00
113,1240.00,-1600000.00
114,1280.00,400000.00
115,1200.00,-400000.00
116,1240.00,0.00
117,1160.00,-400000.00
118,1320.00,0.00
119,920.00,-400000.00
120,1120.00,0.00
121,1040.00,-400000.00
122,1160.00,0.00
123,920.00,-400000.00
124,1080.00,0.00
125,800.00,-400000.00
126,960.00,0.00
127,720.00,-400000.00
128,920.00,0.00
129,720.00,0.00
130,840.00,0.00
131,720.00,0.00
132,800.00,16800000.00
133,680.00,-20000000.00
134,720.00,12800000.00
135,640.00,-11600000.00
136,760.00,9200000.00
137,560.00,-9200000.00
138,680.00,19200000.00
139,-1440.00,-22000000.00
140,-1400.00,9200000.00
141,-1440.00,-9600000.00
142,-1400.00,7200000.00
143,-1440.00,-7600000.00
144,-1440.00,6800000.00
145,-1480.00,-5600000.00
146,-1440.00,7200000.00
147,-1480.00,-7200000.00
148,-1440.00,3200000.00
149,-1480.00,-3600000.00
150,-1400.00,6800000.00
151,-1440.00,-6400000.00
152,-1400.00,13200000.00
153,-1440.00,-13600000.00
154,-1360.00,8400000.00
155,-1400.00,-9200000.00
156,-1320.00,2800000.00
157,-1400.00,-2400000.00
158,-1280.00,400000.00
159,-1360.00,0.00
160,-1240.00,400000.00
161,-1280.00,0.00
162,-1160.00,400000.00
163,-1240.00,0.00
164,-1120.00,400000.00
165,-1200.00,0.00
166,-960.00,400000.00
167,-1120.00,0.00
168,-920.00,400000.00
169,-1200.00,0.00
170,-920.00,400000.00
171,-1080.00,0.00
172,-840.00,400000.00
173,-1000.00,0.00
174,-760.00,400000.00
175,-920.00,0.00
176,-760.00,400000.00
177,-840.00,0.00
178,-720.00,400000.00
179,-840.00,0.00
180,-640.00,14400000.00
181,-760.00,-7600000.00
182,-640.00,12400000.00
183,-720.00,-13600000.00
184,-560.00,6000000.00
185,-720.00,-5600000.00
186,1520.00,11600000.00
187,-640.00,-10400000.00
188,1520.00,14000000.00
189,1440.00,-12000000.00
190,1560.00,9200000.00
191,1400.00,-10000000.00
192,1520.00,11200000.00
193,1440.00,-11200000.00
194,1520.00,15200000.00
195,1480.00,-13600000.00
196,1520.00,8400000.00
197,1480.00,-9200000.00
198,1520.00,14400000.00
199,1480.00,-13600000.00
200,1520.00,3200000.00
201,1440.00,-4000000.00
202,1480.00,1200000.00
203,1440.00,-1200000.00
204,1440.00,18000000.00
205,1400.00,-16800000.00
206,1400.00,8800000.00
207,1360.00,-9600000.00
208,1360.00,2800000.00
209,1320.00,-2800000.00
210,1320.00,800000.00
211,1240.00,-1200000.00
212,1280.00,400000.00
213,1200.00,-400000.00
214,1280.00,0.00
215,1080.00,-400000.00
216,1200.00,0.00
217,1040.00,-400000.00
218,1160.00,0.00
219,920.00,-400000.00
220,1200.00,0.00
221,840.00,-400000.00
222,1080.00,0.00
223,840.00,-400000.00
224,960.00,0.00
225,840.00,-400000.00
226,920.00,0.00
227,760.00,-400000.00
228,880.00,6000000.00
229,680.00,-6000000.00
230,840.00,26800000.00
231,680.00,-28400000.00
232,760.00,15200000.00
233,640.00,-16800000.00
234,720.00,8400000.00
235,-1320.00,-10000000.00
236,-1320.00,33600000.00
237,-1440.00,-31600000.00
238,-1120.00,30400000.00
239,-1600.00,-30000000.00
240,-1400.00,12400000.00
241,-1440.00,-13200000.00
242,-1440.00,14000000.00
243,-1440.00,-15200000.00
244,-1440.00,10000000.00
245,-1440.00,-9200000.00
246,-1400.00,6800000.00
247,-1440.00,-7200000.00
248,-1360.00,4400000.00
249,-1440.00,-4400000.00
250,-1360.00,1600000.00
251,-1400.00,-1200000.00
252,-1320.00,24800000.00
253,-1360.00,-26800000.00
254,-1280.00,8400000.00
255,-1320.00,-9200000.00
256,-1240.00,2800000.00
257,-1280.00,-2800000.00
258,-1160.00,800000.00
259,-1240.00,-800000.00
260,-1120.00,400000.00
261,-1200.00,-400000.00
262,-1000.00,400000.00
263,-1240.00,0.00
264,-1000.00,400000.00
265,-1120.00,0.00
266,-880.00,400000.00
267,-1080.00,0.00
268,-840.00,400000.00
269,-1040.00,0.00
270,-760.00,400000.00
271,-1000.00,0.00
272,-680.00,400000.00
273,-1000.00,0.00
274,-720.00,400000.00
275,-840.00,0.00
276,-680.00,11600000.00
277,-800.00,-10800000.00
278,-600.00,10800000.00
279,-720.00,-10800000.00
280,-480.00,17600000.00
281,-720.00,-13200000.00
282,280.00,18000000.00
283,-760.00,-18000000.00
284,1680.00,14400000.00
285,440.00,-12800000.00
286,1560.00,10400000.00
287,1440.00,-12000000.00
288,1520.00,8800000.00
289,1480.00,-8400000.00
290,1560.00,10000000.00
291,1520.00,-10400000.00
292,1560.00,5200000.00
293,1520.00,-8400000.00
294,1560.00,12400000.00
295,1520.00,-11200000.00
296,1560.00,8800000.00
297,1480.00,-9200000.00
298,1520.00,18800000.00
299,1480.00,-17200000.00
300,1480.00,7600000.00
301,1440.00,-7600000.00
302,1440.00,3600000.00
303,1400.00,-4000000.00
304,1400.00,1200000.00
305,1360.00,-1200000.00
306,1360.00,400000.00
307,1280.00,-400000.00
308,1320.00,0.00
309,1240.00,-400000.00
310,1280.00,0.00
311,1200.00,-400000.00
312,1280.00,0.00
313,1040.00,-400000.00
314,1200.00,0.00
315,1040.00,0.00
316,1200.00,0.00
317,920.00,0.00
318,1080.00,0.00
319,880.00,-400000.00
320,1080.00,0.00
321,800.00,0.00
322,960.00,0.00
323,800.00,0.00
324,920.00,0.00
325,720.00,-400000.00
326,840.00,19600000.00
327,760.00,-21200000.00
328,880.00,10400000.00
329,680.00,-9600000.00
330,760.00,12000000.00
331,600.00,-14800000.00
332,600.00,12000000.00
333,-1440.00,-11600000.00
334,-1320.00,12800000.00
335,-1400.00,-14000000.00
336,-1320.00,11600000.00
337,-1400.00,-10400000.00
338,-1360.00,10400000.00
339,-1400.00,-8000000.00
340,-1400.00,8000000.00
341,-1440.00,-7600000.00
342,-1360.00,8800000.00
343,-1400.00,-10400000.00
344,-1360.00,4400000.00
345,-1400.00,-5600000.00
346,-1320.00,3200000.00
347,-1400.00,-3600000.00
348,-1320.00,2000000.00
349,-1360.00,-1600000.00
350,-1240.00,400000.00
351,-1320.00,-400000.00
352,-1200.00,800000.00
353,-1280.00,-400000.00
354,-1160.00,800000.00
355,-1240.00,-400000.00
356,-1120.00,400000.00
357,-1160.00,0.00
358,-1040.00,400000.00
359,-1120.00,0.00
360,-960.00,400000.00
361,-1080.00,0.00
362,-880.00,400000.00
363,-1120.00,0.00
364,-800.00,400000.00
365,-1040.00,0.00
366,-600.00,400000.00
367,-1200.00,0.00
368,-720.00,400000.00
369,-920.00,0.00
370,-640.00,400000.00
371,-840.00,0.00
372,-640.00,400000.00
373,-800.00,0.00
374,-600.00,9600000.00
375,-720.00,-8800000.00
376,-560.00,8400000.00
377,-640.00,-8800000.00
378,-440.00,7200000.00
379,-720.00,-24800000.00
380,1560.00,31200000.00
381,-560.00,-29600000.00
382,1560.00,11200000.00
383,1480.00,-12800000.00
384,1560.00,5600000.00
385,1520.00,-4800000.00
386,1600.00,5600000.00
387,1520.00,-5200000.00
388,1600.00,14000000.00
389,1560.00,-12400000.00
390,1600.00,6400000.00
391,1560.00,-6000000.00
392,1560.00,12400000.00
393,1520.00,-13200000.00
394,1560.00,8400000.00
395,1520.00,-7600000.00
396,1520.00,2400000.00
397,1480.00,-2000000.00
398,1480.00,800000.00
399,1440.00,-800000.00
400,1440.00,400000.00
401,1400.00,-400000.00
402,1400.00,0.00
403,1360.00,-400000.00
404,1360.00,0.00
405,1280.00,-400000.00
406,1320.00,0.00
407,1240.00,-400000.00
408,1360.00,0.00
409,1080.00,-400000.00
410,1240.00,0.00
411,1000.00,-400000.00
412,1160.00,0.00
413,1000.00,-400000.00
414,1240.00,0.00
415,800.00,-400000.00
416,1040.00,0.00
417,880.00,-400000.00
418,1080.00,0.00
419,800.00,-400000.00
420,960.00,0.00
421,720.00,-400000.00
422,840.00,16400000.00
423,720.00,-18000000.00
424,840.00,9600000.00
425,720.00,-10400000.00
426,760.00,12400000.00
427,680.00,-13200000.00
428,760.00,9600000.00
429,-1400.00,-8400000.00
430,-1320.00,15200000.00
431,-1400.00,-15200000.00
432,-1320.00,15200000.00
433,-1400.00,-17200000.00
434,-1360.00,12400000.00
435,-1400.00,-13600000.00
436,-1360.00,8400000.00
437,-1400.00,-7600000.00
438,-1360.00,7200000.00
439,-1400.00,-7200000.00
440,-1360.00,5600000.00
441,-1400.00,-5200000.00
442,-1320.00,7600000.00
443,-1360.00,-7600000.00
444,-1280.00,2800000.00
445,-1360.00,-2800000.00
446,-1240.00,2000000.00
447,-1320.00,-2000000.00
448,-1200.00,800000.00
449,-1280.00,-400000.00
450,-1160.00,400000.00
451,-1240.00,-400000.00
452,-1080.00,400000.00
453,-1160.00,0.00
454,-1040.00,400000.00
455,-1120.00,0.00
456,-960.00,400000.00
457,-1120.00,0.00
458,-800.00,400000.00
459,-1080.00,0.00
460,-800.00,400000.00
461,-1040.00,0.00
462,-680.00,400000.00
463,-960.00,0.00
464,-680.00,400000.00
465,-840.00,0.00
466,-600.00,400000.00
467,-800.00,0.00
468,-520.00,0.00
469,-720.00,0.00
470,-560.00,8000000.00
471,-680.00,-8000000.00
472,-480.00,10000000.00
473,-640.00,-9200000.00
474,-360.00,6400000.00
475,-600.00,-6400000.00
476,1560.00,20400000.00
477,-520.00,-19200000.00
478,1960.00,17200000.00
479,1320.00,-20000000.00
480,1600.00,9200000.00
481,1520.00,-9200000.00
482,1600.00,6800000.00
483,1560.00,-6000000.00
484,1600.00,10400000.00
485,1600.00,-10000000.00
486,1600.00,9200000.00
487,1600.00,-8800000.00
488,1600.00,8400000.00
489,1560.00,-6400000.00
490,1600.00,5200000.00
491,1560.00,-5600000.00
492,1560.00,14400000.00
493,1520.00,-12800000.00
494,1560.00,8800000.00
495,1480.00,-9600000.00
496,1480.00,3200000.00
497,1440.00,-3200000.00
498,1440.00,800000.00
499,1400.00,-1200000.00
500,1400.00,400000.00
501,1320.00,-400000.00
502,1360.00,0.00
503,1280.00,-400000.00
504,1440.00,0.00
505,1160.00,-400000.00
506,1280.00,0.00
507,1120.00,-400000.00
508,1200.00,0.00
509,1080.00,0.00
510,1200.00,0.00
511,920.00,-400000.00
512,1120.00,0.00
513,960.00,0.00
514,1080.00,0.00
515,840.00,0.00
516,1080.00,0.00
517,800.00,0.00
518,960.00,11200000.00
519,760.00,-12400000.00
520,880.00,12400000.00
521,680.00,-12400000.00
522,840.00,9200000.00
523,720.00,-10400000.00
524,800.00,12000000.00
525,-920.00,-15200000.00
526,-1040.00,14000000.00
527,-1440.00,-12800000.00
528,-1280.00,13200000.00
529,-1320.00,-14400000.00
530,-1240.00,13600000.00
531,-1400.00,-12400000.00
532,-1320.00,6800000.00
533,-1360.00,-7600000.00
534,-1360.00,4800000.00
535,-1400.00,-6800000.00
536,-1320.00,13600000.00
537,-1360.00,-14000000.00
538,-1320.00,8000000.00
539,-1360.00,-8400000.00
540,-1280.00,8000000.00
541,-1320.00,-9200000.00
542,-1240.00,5600000.00
543,-1320.00,-5200000.00
544,-1200.00,7600000.00
545,-1280.00,-8000000.00
546,-1160.00,3200000.00
547,-1240.00,-2800000.00
548,-1120.00,800000.00
549,-1160.00,-400000.00
550,-1040.00,400000.00
551,-1120.00,0.00
552,-960.00,400000.00
553,-1080.00,0.00
554,-920.00,400000.00
555,-1040.00,0.00
556,-800.00,400000.00
557,-960.00,0.00
558,-800.00,400000.00
559,-1000.00,0.00
560,-640.00,400000.00
561,-920.00,0.00
562,-640.00,400000.00
563,-800.00,0.00
564,-600.00,400000.00
565,-760.00,0.00
566,-600.00,6800000.00
567,-680.00,-5600000.00
568,-440.00,7600000.00
569,-680.00,-9200000.00
570,-520.00,4800000.00
571,-600.00,-11200000.00
572,-160.00,12400000.00
573,-560.00,-11600000.00
574,1680.00,28000000.00
575,-120.00,-24800000.00
576,1600.00,11200000.00
577,1520.00,-12400000.00
578,1600.00,8000000.00
579,1560.00,-7600000.00
580,1640.00,10400000.00
581,1560.00,-10000000.00
582,1640.00,8800000.00
583,1600.00,-8400000.00
584,1600.00,4400000.00
585,1560.00,-4400000.00
586,1600.00,400000.00
587,1560.00,-800000.00
588,1560.00,33200000.00
589,1520.00,-30400000.00
590,1560.00,15600000.00
591,1480.00,-14400000.00
592,1520.00,4400000.00
593,1440.00,-3600000.00
594,1480.00,1200000.00
595,1440.00,-1600000.00
596,1440.00,400000.00
597,1360.00,-400000.00
598,1400.00,0.00
599,1320.00,-400000.00
600,1320.00,0.00
601,1240.00,0.00
602,1320.00,0.00
603,1160.00,-400000.00
604,1240.00,0.00
605,1160.00,-400000.00
606,1280.00,0.00
607,960.00,-400000.00
608,1240.00,0.00
609,880.00,-400000.00
610,1160.00,0.00
611,880.00,-400000.00
612,1000.00,0.00
613,840.00,-400000.00
614,1000.00,0.00
615,800.00,0.00
616,960.00,8800000.00
617,760.00,-10400000.00
618,920.00,8800000.00
619,600.00,-8400000.00
620,800.00,21200000.00
621,720.00,-23600000.00
622,760.00,8000000.00
623,-1400.00,-9200000.00
624,-1240.00,18800000.00
625,-1360.00,-20800000.00
626,-1280.00,11600000.00
627,-1320.00,-12400000.00
628,-1320.00,6800000.00
629,-1360.00,-6400000.00
630,-1320.00,6400000.00
631,-1360.00,-6800000.00
632,-1320.00,20800000.00
633,-1360.00,-21600000.00
634,-1320.00,13200000.00
635,-1360.00,-14400000.00
636,-1280.00,18400000.00
637,-1320.00,-17200000.00
638,-1240.00,13200000.00
639,-1280.00,-12000000.00
640,-1200.00,4000000.00
641,-1280.00,-4000000.00
642,-1160.00,2000000.00
643,-1240.00,-1600000.00
644,-1120.00,1200000.00
645,-1200.00,-800000.00
646,-1080.00,400000.00
647,-1120.00,-400000.00
648,-1000.00,400000.00
649,-1080.00,0.00
650,-920.00,400000.00
651,-1040.00,0.00
652,-880.00,400000.00
653,-960.00,0.00
654,-800.00,400000.00
655,-920.00,0.00
656,-680.00,400000.00
657,-920.00,0.00
658,-720.00,400000.00
659,-800.00,0.00
660,-640.00,400000.00
661,-760.00,0.00
662,-600.00,400000.00
663,-760.00,0.00
664,-520.00,6800000.00
665,-680.00,-6400000.00
666,-480.00,4800000.00
667,-720.00,-4400000.00
668,-480.00,10800000.00
669,-560.00,-10400000.00
670,1600.00,17600000.00
671,-520.00,-16400000.00
672,1600.00,3200000.00
673,1520.00,-3200000.00
674,1600.00,6400000.00
675,1520.00,-6000000.00
676,1720.00,11600000.00
677,1440.00,-11600000.00
678,1600.00,17600000.00
679,1560.00,-16000000.00
680,1600.00,22400000.00
681,1560.00,-20400000.00
682,1600.00,7200000.00
683,1560.00,-6400000.00
684,1600.00,6000000.00
685,1560.00,-5200000.00
686,1560.00,1600000.00
687,1520.00,-1600000.00
688,1520.00,1200000.00
689,1480.00,-1600000.00
690,1520.00,18400000.00
691,1440.00,-17200000.00
692,1440.00,6400000.00
693,1400.00,-7600000.00
694,1400.00,2400000.00
695,1360.00,-2400000.00
696,1360.00,800000.00
697,1280.00,-800000.00
698,1320.00,0.00
699,1240.00,-400000.00
700,1320.00,0.00
701,1120.00,-400000.00
702,1240.00,0.00
703,1040.00,-400000.00
704,1240.00,0.00
705,880.00,-400000.00
706,1120.00,0.00
707,920.00,-400000.00
708,1160.00,0.00
709,840.00,-400000.00
710,1000.00,0.00
711,880.00,0.00
712,960.00,10000000.00
713,760.00,-11200000.00
714,960.00,17600000.00
715,720.00,-19200000.00
716,920.00,11200000.00
717,680.00,-10800000.00
718,800.00,6400000.00
719,-1320.00,-6400000.00
720,-1200.00,6800000.00
721,-1400.00,-7200000.00
722,-1240.00,15600000.00
723,-1320.00,-17200000.00
724,-1280.00,13200000.00
725,-1320.00,-12800000.00
726,-1200.00,8000000.00
727,-1400.00,-9200000.00
728,-1320.00,4400000.00
729,-1360.00,-4000000.00
730,-1280.00,5200000.00
731,-1360.00,-4400000.00
732,-1280.00,1200000.00
733,-1320.00,-1200000.00
734,-1240.00,4800000.00
735,-1320.00,-9600000.00
736,-1200.00,1200000.00
737,-1280.00,-1200000.00
738,-1160.00,400000.00
739,-1240.00,-400000.00
740,-1120.00,10000000.00
741,-1200.00,-11200000.00
742,-1080.00,6800000.00
743,-1160.00,-6800000.00
744,-1040.00,2000000.00
745,-1080.00,-2000000.00
746,-920.00,800000.00
747,-1080.00,-400000.00
748,-920.00,400000.00
749,-1000.00,0.00
750,-800.00,400000.00
751,-1040.00,0.00
752,-640.00,400000.00
753,-1080.00,0.00
754,-720.00,400000.00
755,-840.00,0.00
756,-640.00,400000.00
757,-840.00,0.00
758,-640.00,0.00
759,-760.00,0.00
760,-440.00,12800000.00
