Save Time: 2025-02-27 15:31:14
Units:(mV)
,CH1,CH2
Status:,Stop,Stop
Frequency:,91.216 kHz,26.923 kHz
Period:,10.963 uS,37.143 uS
PK-PK:,72.000 V ?,1.660 V


1,800.00,-480.00
2,0.00,-520.00
3,800.00,-420.00
4,400.00,-480.00
5,800.00,-380.00
6,0.00,-440.00
7,800.00,-300.00
8,400.00,-380.00
9,800.00,-220.00
10,400.00,-320.00
11,800.00,-140.00
12,400.00,-240.00
13,800.00,-80.00
14,400.00,-160.00
15,15200.00,20.00
16,-15600.00,-80.00
17,11600.00,100.00
18,-11200.00,20.00
19,10400.00,180.00
20,-7200.00,100.00
21,4400.00,280.00
22,-3200.00,180.00
23,2400.00,360.00
24,-800.00,260.00
25,1200.00,440.00
26,0.00,360.00
27,1200.00,500.00
28,400.00,420.00
29,1200.00,560.00
30,400.00,500.00
31,800.00,620.00
32,400.00,560.00
33,1200.00,660.00
34,400.00,600.00
35,10000.00,680.00
36,-10400.00,640.00
37,7200.00,720.00
38,-6000.00,680.00
39,3600.00,720.00
40,-1600.00,680.00
41,2000.00,720.00
42,-400.00,680.00
43,1200.00,880.00
44,400.00,420.00
45,1200.00,620.00
46,400.00,580.00
47,1200.00,600.00
48,400.00,540.00
49,1200.00,560.00
50,400.00,500.00
51,800.00,500.00
52,400.00,440.00
53,1200.00,440.00
54,400.00,380.00
55,800.00,380.00
56,400.00,280.00
57,800.00,300.00
58,400.00,200.00
59,800.00,220.00
60,400.00,140.00
61,21600.00,140.00
62,-18000.00,40.00
63,12800.00,60.00
64,-10400.00,-40.00
65,20000.00,-40.00
66,-16400.00,-120.00
67,9600.00,-120.00
68,-8800.00,-220.00
69,19600.00,-200.00
70,-13600.00,-300.00
71,10800.00,-280.00
72,-10800.00,-360.00
73,5200.00,-300.00
74,-3200.00,-400.00
75,2000.00,-400.00
76,-1200.00,-460.00
77,9600.00,-420.00
78,-6000.00,-540.00
79,4000.00,-480.00
80,-3200.00,-560.00
81,2000.00,-540.00
82,-1200.00,-580.00
83,1200.00,-560.00
84,-400.00,-600.00
85,800.00,-580.00
86,0.00,-600.00
87,800.00,-580.00
88,0.00,-600.00
89,800.00,-580.00
90,0.00,-600.00
91,800.00,-540.00
92,0.00,-580.00
93,800.00,-520.00
94,0.00,-560.00
95,800.00,-460.00
96,0.00,-520.00
97,800.00,-400.00
98,0.00,-480.00
99,800.00,-340.00
100,400.00,-420.00
101,800.00,-260.00
102,400.00,-340.00
103,800.00,-180.00
104,400.00,-280.00
105,800.00,-100.00
106,400.00,-180.00
107,30800.00,0.00
108,-35600.00,-100.00
109,28800.00,100.00
110,-26400.00,0.00
111,15600.00,180.00
112,-16400.00,80.00
113,10400.00,260.00
114,-9600.00,180.00
115,4800.00,360.00
116,-3200.00,260.00
117,2000.00,460.00
118,-1200.00,360.00
119,1600.00,500.00
120,0.00,420.00
121,17600.00,600.00
122,-18000.00,480.00
123,12400.00,620.00
124,-10000.00,560.00
125,5200.00,680.00
126,-3600.00,600.00
127,2800.00,700.00
128,-1200.00,660.00
129,1600.00,720.00
130,0.00,700.00
131,1200.00,740.00
132,400.00,720.00
133,1200.00,740.00
134,400.00,720.00
135,1200.00,740.00
136,400.00,700.00
137,1200.00,720.00
138,400.00,640.00
139,1200.00,680.00
140,400.00,620.00
141,1200.00,640.00
142,800.00,560.00
143,1200.00,580.00
144,400.00,500.00
145,800.00,500.00
146,400.00,440.00
147,800.00,440.00
148,400.00,340.00
149,800.00,360.00
150,400.00,260.00
151,800.00,260.00
152,400.00,160.00
153,20400.00,180.00
154,-17200.00,80.00
155,15600.00,80.00
156,-14800.00,-20.00
157,29600.00,0.00
158,-24800.00,-100.00
159,22000.00,-100.00
160,-22000.00,-200.00
161,9600.00,-200.00
162,-7600.00,-280.00
163,7200.00,-280.00
164,-5200.00,-360.00
165,6000.00,-360.00
166,-4400.00,-440.00
167,4400.00,-320.00
168,-3600.00,-540.00
169,2000.00,-480.00
170,-1200.00,-540.00
171,1200.00,-480.00
172,-400.00,-640.00
173,800.00,-560.00
174,0.00,-620.00
175,800.00,-600.00
176,0.00,-640.00
177,800.00,-620.00
178,0.00,-640.00
179,400.00,-580.00
180,400.00,-660.00
181,800.00,-620.00
182,400.00,-640.00
183,800.00,-580.00
184,400.00,-620.00
185,400.00,-560.00
186,400.00,-600.00
187,800.00,-500.00
188,400.00,-580.00
189,800.00,-460.00
190,400.00,-520.00
191,400.00,-380.00
192,400.00,-460.00
193,800.00,-300.00
194,400.00,-400.00
195,800.00,-220.00
196,400.00,-320.00
197,800.00,-120.00
198,400.00,-220.00
199,19200.00,-40.00
200,-23200.00,-140.00
201,23600.00,60.00
202,-23600.00,-40.00
203,18000.00,160.00
204,-19200.00,60.00
205,12000.00,240.00
206,-11200.00,160.00
207,5600.00,340.00
208,-3600.00,240.00
209,2400.00,480.00
210,-1200.00,280.00
211,30800.00,480.00
212,-38400.00,400.00
213,30800.00,620.00
214,-33600.00,400.00
215,14400.00,620.00
216,-12000.00,540.00
217,6000.00,680.00
218,-4800.00,600.00
219,3200.00,720.00
220,-1600.00,660.00
221,1600.00,740.00
222,0.00,700.00
223,1200.00,820.00
224,400.00,600.00
225,1200.00,740.00
226,400.00,720.00
227,800.00,740.00
228,400.00,720.00
229,800.00,720.00
230,400.00,700.00
231,1200.00,720.00
232,400.00,660.00
233,1200.00,680.00
234,400.00,620.00
235,800.00,620.00
236,400.00,560.00
237,1200.00,560.00
238,400.00,500.00
239,1200.00,500.00
240,400.00,420.00
241,800.00,420.00
242,400.00,320.00
243,800.00,320.00
244,400.00,240.00
245,800.00,240.00
246,400.00,140.00
247,30800.00,140.00
248,-34000.00,40.00
249,21600.00,40.00
250,-19200.00,-60.00
251,8800.00,-40.00
252,-8000.00,-140.00
253,15600.00,-140.00
254,-8000.00,-240.00
255,14000.00,-180.00
256,-13600.00,-400.00
257,6800.00,-300.00
258,-4800.00,-400.00
259,2800.00,-360.00
260,-1600.00,-540.00
261,1600.00,-440.00
262,-400.00,-520.00
263,12400.00,-480.00
264,-10400.00,-600.00
265,9600.00,-540.00
266,-8800.00,-600.00
267,4400.00,-580.00
268,-3200.00,-640.00
269,1600.00,-620.00
270,-1200.00,-660.00
271,1200.00,-640.00
272,0.00,-660.00
273,800.00,-640.00
274,0.00,-660.00
275,800.00,-620.00
276,0.00,-660.00
277,800.00,-600.00
278,0.00,-640.00
279,800.00,-560.00
280,0.00,-620.00
281,800.00,-500.00
282,0.00,-580.00
283,800.00,-440.00
284,400.00,-520.00
285,800.00,-380.00
286,400.00,-460.00
287,800.00,-280.00
288,400.00,-380.00
289,800.00,-200.00
290,400.00,-280.00
291,23600.00,-100.00
292,-25600.00,-200.00
293,18800.00,0.00
294,-18800.00,-100.00
295,8400.00,100.00
296,-6800.00,0.00
297,20800.00,200.00
298,-18800.00,100.00
299,10400.00,300.00
300,-9600.00,200.00
301,4800.00,420.00
302,-3200.00,300.00
303,22800.00,480.00
304,-23200.00,360.00
305,11600.00,540.00
306,-9600.00,460.00
307,4800.00,600.00
308,-3600.00,520.00
309,2800.00,680.00
310,-800.00,600.00
311,1600.00,720.00
312,0.00,660.00
313,1200.00,780.00
314,400.00,680.00
315,1200.00,760.00
316,400.00,720.00
317,1200.00,760.00
318,400.00,740.00
319,1200.00,780.00
320,800.00,740.00
321,1200.00,760.00
322,400.00,740.00
323,1200.00,740.00
324,400.00,720.00
325,1200.00,720.00
326,400.00,680.00
327,1200.00,680.00
328,400.00,600.00
329,1200.00,620.00
330,400.00,540.00
331,800.00,540.00
332,400.00,480.00
333,800.00,480.00
334,400.00,380.00
335,800.00,380.00
336,400.00,280.00
337,800.00,280.00
338,400.00,200.00
339,30800.00,200.00
340,-33600.00,100.00
341,24800.00,100.00
342,-24800.00,-20.00
343,11200.00,0.00
344,-9200.00,-120.00
345,12400.00,-100.00
346,-10800.00,-220.00
347,9600.00,-200.00
348,-7600.00,-300.00
349,6400.00,-180.00
350,-4800.00,-380.00
351,13600.00,-360.00
352,-11200.00,-460.00
353,8000.00,-440.00
354,-6000.00,-520.00
355,3200.00,-500.00
356,-2400.00,-580.00
357,1600.00,-560.00
358,-800.00,-620.00
359,1200.00,-600.00
360,-400.00,-680.00
361,800.00,-620.00
362,0.00,-660.00
363,800.00,-660.00
364,0.00,-680.00
365,800.00,-620.00
366,0.00,-720.00
367,800.00,-640.00
368,0.00,-680.00
369,800.00,-620.00
370,0.00,-660.00
371,400.00,-580.00
372,0.00,-640.00
373,800.00,-540.00
374,400.00,-600.00
375,800.00,-480.00
376,0.00,-560.00
377,800.00,-420.00
378,400.00,-500.00
379,800.00,-340.00
380,400.00,-420.00
381,800.00,-240.00
382,400.00,-340.00
383,800.00,-140.00
384,400.00,-260.00
385,22000.00,-40.00
386,-22400.00,-160.00
387,12400.00,60.00
388,-12400.00,-60.00
389,6000.00,160.00
390,-4000.00,40.00
391,18000.00,260.00
392,-18800.00,160.00
393,14400.00,380.00
394,-12000.00,220.00
395,5200.00,440.00
396,-3600.00,340.00
397,30800.00,520.00
398,-33600.00,440.00
399,27600.00,600.00
400,-24000.00,480.00
401,10800.00,660.00
402,-10000.00,560.00
403,5200.00,700.00
404,-3600.00,640.00
405,2400.00,760.00
406,-1200.00,600.00
407,1600.00,760.00
408,0.00,720.00
409,1200.00,780.00
410,400.00,760.00
411,1200.00,800.00
412,400.00,760.00
413,1200.00,800.00
414,800.00,760.00
415,1200.00,780.00
416,800.00,760.00
417,800.00,760.00
418,400.00,700.00
419,800.00,720.00
420,400.00,660.00
421,1200.00,680.00
422,400.00,600.00
423,800.00,600.00
424,400.00,520.00
425,800.00,520.00
426,400.00,440.00
427,800.00,440.00
428,400.00,340.00
429,24800.00,360.00
430,-19200.00,260.00
431,30800.00,260.00
432,-29200.00,140.00
433,12800.00,140.00
434,-12000.00,40.00
435,20000.00,40.00
436,-16800.00,-60.00
437,11600.00,-60.00
438,-10800.00,-160.00
439,21200.00,-160.00
440,-18400.00,-260.00
441,23200.00,-180.00
442,-18800.00,-400.00
443,28000.00,-320.00
444,-21200.00,-420.00
445,22800.00,-420.00
446,-23600.00,-500.00
447,10000.00,-420.00
448,-8800.00,-600.00
449,4000.00,-540.00
450,-3600.00,-620.00
451,2000.00,-600.00
452,-1200.00,-660.00
453,1200.00,-600.00
454,-400.00,-720.00
455,800.00,-680.00
456,0.00,-700.00
457,800.00,-680.00
458,0.00,-720.00
459,400.00,-700.00
460,0.00,-720.00
461,800.00,-680.00
462,0.00,-700.00
463,800.00,-640.00
464,0.00,-680.00
465,400.00,-600.00
466,0.00,-660.00
467,800.00,-540.00
468,0.00,-620.00
469,800.00,-480.00
470,0.00,-560.00
471,800.00,-380.00
472,0.00,-480.00
473,800.00,-300.00
474,400.00,-400.00
475,800.00,-200.00
476,400.00,-300.00
477,15600.00,-100.00
478,-24000.00,-200.00
479,11600.00,0.00
480,-11600.00,-100.00
481,9200.00,120.00
482,-8000.00,0.00
483,5600.00,220.00
484,-4800.00,120.00
485,14400.00,340.00
486,-15600.00,220.00
487,10000.00,420.00
488,-9200.00,340.00
489,11600.00,500.00
490,-12800.00,420.00
491,12400.00,600.00
492,-12800.00,500.00
493,5600.00,720.00
494,-4000.00,520.00
495,18400.00,720.00
496,-17200.00,660.00
497,16800.00,780.00
498,-14000.00,700.00
499,6800.00,920.00
500,-5600.00,620.00
501,3200.00,800.00
502,-1600.00,760.00
503,2000.00,820.00
504,-400.00,800.00
505,1200.00,820.00
506,400.00,800.00
507,1200.00,820.00
508,400.00,780.00
509,1200.00,800.00
510,400.00,760.00
511,1200.00,780.00
512,400.00,700.00
513,1200.00,720.00
514,400.00,640.00
515,1200.00,640.00
516,400.00,560.00
517,1200.00,580.00
518,400.00,480.00
519,800.00,480.00
520,400.00,380.00
521,800.00,400.00
522,400.00,300.00
523,800.00,280.00
524,400.00,180.00
525,30800.00,180.00
526,-41200.00,80.00
527,22400.00,80.00
528,-20000.00,-40.00
529,8800.00,-20.00
530,-8400.00,-140.00
531,4000.00,-140.00
532,-2800.00,-280.00
533,5200.00,-180.00
534,-3200.00,-320.00
535,30800.00,-320.00
536,-31600.00,-420.00
537,20800.00,-380.00
538,-18000.00,-500.00
539,8000.00,-480.00
540,-7600.00,-560.00
541,4000.00,-480.00
542,-2400.00,-620.00
543,12400.00,-580.00
544,-10800.00,-700.00
545,9600.00,-580.00
546,-8000.00,-740.00
547,4000.00,-620.00
548,-3200.00,-700.00
549,2000.00,-680.00
550,-800.00,-720.00
551,1200.00,-700.00
552,-400.00,-720.00
553,800.00,-680.00
554,0.00,-720.00
555,800.00,-660.00
556,0.00,-700.00
557,800.00,-620.00
558,0.00,-680.00
559,800.00,-580.00
560,0.00,-640.00
561,800.00,-500.00
562,0.00,-580.00
563,800.00,-420.00
564,400.00,-520.00
565,800.00,-340.00
566,400.00,-440.00
567,800.00,-240.00
568,400.00,-360.00
569,800.00,-140.00
570,400.00,-260.00
571,28800.00,-40.00
572,-30400.00,-160.00
573,24800.00,60.00
574,-22400.00,-40.00
575,20000.00,180.00
576,-20800.00,60.00
577,20000.00,280.00
578,-20800.00,180.00
579,14800.00,400.00
580,-12400.00,280.00
581,8800.00,460.00
582,-8400.00,360.00
583,12000.00,540.00
584,-11600.00,440.00
585,7200.00,620.00
586,-6000.00,540.00
587,14400.00,720.00
588,-2000.00,580.00
589,18000.00,740.00
590,-21200.00,680.00
591,8400.00,880.00
592,-6400.00,680.00
593,3600.00,820.00
594,-2400.00,660.00
595,2000.00,820.00
596,-400.00,780.00
597,1600.00,860.00
598,0.00,740.00
599,1200.00,800.00
600,400.00,780.00
601,1200.00,800.00
602,400.00,760.00
603,1200.00,780.00
604,400.00,720.00
605,1200.00,720.00
606,400.00,680.00
607,1200.00,680.00
608,400.00,600.00
609,1200.00,620.00
610,400.00,520.00
611,800.00,520.00
612,400.00,440.00
613,800.00,440.00
614,400.00,360.00
615,800.00,360.00
616,400.00,240.00
617,27600.00,240.00
618,-24000.00,140.00
619,14000.00,140.00
620,-13200.00,20.00
621,12000.00,40.00
622,-10000.00,-80.00
623,10000.00,-60.00
624,-13600.00,-180.00
625,18000.00,-180.00
626,-8800.00,-280.00
627,4400.00,-100.00
628,-3200.00,-380.00
629,30800.00,-320.00
630,-26800.00,-420.00
631,13200.00,-420.00
632,-11200.00,-500.00
633,5200.00,-500.00
634,-4800.00,-580.00
635,2400.00,-560.00
636,-1600.00,-620.00
637,1600.00,-500.00
638,-400.00,-700.00
639,800.00,-620.00
640,0.00,-660.00
641,800.00,-640.00
642,0.00,-680.00
643,800.00,-680.00
644,0.00,-700.00
645,400.00,-620.00
646,0.00,-740.00
647,800.00,-660.00
648,0.00,-680.00
649,800.00,-620.00
650,0.00,-680.00
651,800.00,-580.00
652,0.00,-640.00
653,800.00,-520.00
654,400.00,-600.00
655,800.00,-460.00
656,400.00,-540.00
657,800.00,-380.00
658,0.00,-460.00
659,800.00,-300.00
660,400.00,-400.00
661,800.00,-200.00
662,400.00,-300.00
663,800.00,-100.00
664,400.00,-200.00
665,30800.00,0.00
666,-38400.00,-120.00
667,20800.00,100.00
668,-20400.00,-20.00
669,15200.00,200.00
670,-14800.00,100.00
671,14800.00,320.00
672,-15200.00,200.00
673,10000.00,420.00
674,-9200.00,300.00
675,4800.00,480.00
676,-3200.00,380.00
677,14000.00,560.00
678,-800.00,400.00
679,17600.00,660.00
680,-19200.00,500.00
681,8000.00,680.00
682,-6000.00,600.00
683,3600.00,720.00
684,-2000.00,660.00
685,2000.00,820.00
686,-400.00,640.00
687,1200.00,780.00
688,0.00,740.00
689,1200.00,800.00
690,400.00,720.00
691,1200.00,820.00
692,400.00,740.00
693,1200.00,780.00
694,400.00,740.00
695,1200.00,760.00
696,400.00,720.00
697,1200.00,720.00
698,400.00,680.00
699,1200.00,700.00
700,400.00,620.00
701,1200.00,620.00
702,400.00,560.00
703,800.00,560.00
704,400.00,480.00
705,800.00,480.00
706,400.00,380.00
707,800.00,400.00
708,400.00,280.00
709,30400.00,300.00
710,-27200.00,180.00
711,20400.00,180.00
712,-17600.00,80.00
713,8000.00,100.00
714,-7200.00,-20.00
715,13600.00,0.00
716,-10800.00,-120.00
717,20000.00,-100.00
718,-19200.00,-220.00
719,13200.00,-120.00
720,-10400.00,-300.00
721,7600.00,-280.00
722,-5600.00,-380.00
723,22000.00,-380.00
724,-19200.00,-460.00
725,16400.00,-440.00
726,-16400.00,-580.00
727,7600.00,-400.00
728,-6000.00,-620.00
729,2800.00,-560.00
730,-2400.00,-620.00
731,1600.00,-460.00
732,-800.00,-700.00
733,800.00,-620.00
734,0.00,-680.00
735,800.00,-660.00
736,0.00,-680.00
737,800.00,-680.00
738,0.00,-680.00
739,400.00,-660.00
740,0.00,-680.00
741,800.00,-640.00
742,0.00,-680.00
743,800.00,-600.00
744,0.00,-660.00
745,800.00,-560.00
746,0.00,-620.00
747,800.00,-500.00
748,400.00,-560.00
749,800.00,-420.00
750,400.00,-500.00
751,800.00,-340.00
752,400.00,-420.00
753,800.00,-240.00
754,400.00,-340.00
755,6400.00,-140.00
756,-5600.00,-240.00
757,14400.00,-40.00
758,-14000.00,-160.00
759,12400.00,60.00
760,-16400.00,-60.00
